# Data From feldspar_std_9_xrf.001
# VERSION: 3.1
# ELEMENTS: 16
# DATE: Aug 11, 2001 16:25:38.435
# CHANNELS: 2048
# ROIS: 3 3 3 3 3 3 3 3 3 3 3 0 3 3 3 3
#----------------------------------------------------------
#    energy       counts
    0.0314320      0.00000
    0.0461207      0.00000
    0.0608095      0.00000
    0.0754982      0.00000
    0.0901870      0.00000
     0.104876      0.00000
     0.119564      0.00000
     0.134253      0.00000
     0.148942      0.00000
     0.163631      0.00000
     0.178319      0.00000
     0.193008      0.00000
     0.207697      0.00000
     0.222386      0.00000
     0.237074      0.00000
     0.251763      0.00000
     0.266452      0.00000
     0.281141      0.00000
     0.295829      0.00000
     0.310518      0.00000
     0.325207      0.00000
     0.339896      0.00000
     0.354584      0.00000
     0.369273      0.00000
     0.383962      0.00000
     0.398651      0.00000
     0.413339      0.00000
     0.428028      0.00000
     0.442717      0.00000
     0.457406      0.00000
     0.472094      0.00000
     0.486783      0.00000
     0.501472      0.00000
     0.516161      0.00000
     0.530849      0.00000
     0.545538      0.00000
     0.560227      0.00000
     0.574916      0.00000
     0.589604      0.00000
     0.604293      0.00000
     0.618982      0.00000
     0.633671      0.00000
     0.648359      0.00000
     0.663048      0.00000
     0.677737      0.00000
     0.692426      0.00000
     0.707114      0.00000
     0.721803      0.00000
     0.736492      0.00000
     0.751181      0.00000
     0.765869      0.00000
     0.780558      0.00000
     0.795247      0.00000
     0.809936      0.00000
     0.824624      0.00000
     0.839313      0.00000
     0.854002      0.00000
     0.868691      0.00000
     0.883379      0.00000
     0.898068      0.00000
     0.912757      0.00000
     0.927446      0.00000
     0.942134      0.00000
     0.956823      0.00000
     0.971512      0.00000
     0.986201      0.00000
      1.00089      0.00000
      1.01558      0.00000
      1.03027      0.00000
      1.04496      0.00000
      1.05964      1.00000
      1.07433      0.00000
      1.08902      2.00000
      1.10371      0.00000
      1.11840      0.00000
      1.13309      0.00000
      1.14778      0.00000
      1.16247      0.00000
      1.17715      1.00000
      1.19184      0.00000
      1.20653      2.00000
      1.22122      1.00000
      1.23591      1.00000
      1.25060      1.00000
      1.26529      0.00000
      1.27998      0.00000
      1.29466      1.00000
      1.30935      0.00000
      1.32404      0.00000
      1.33873      1.00000
      1.35342      2.00000
      1.36811      2.00000
      1.38280      1.00000
      1.39749      3.00000
      1.41217      3.00000
      1.42686      6.00000
      1.44155      1.00000
      1.45624      2.00000
      1.47093      2.00000
      1.48562      2.00000
      1.50031      2.00000
      1.51500      5.00000
      1.52968      20.0000
      1.54437      140.000
      1.55906      185.000
      1.57375      217.000
      1.58844      343.000
      1.60313      533.000
      1.61782      742.000
      1.63251      733.000
      1.64719      759.000
      1.66188      751.000
      1.67657      716.000
      1.69126      744.000
      1.70595      798.000
      1.72064      737.000
      1.73533      735.000
      1.75002      757.000
      1.76470      791.000
      1.77939      775.000
      1.79408      724.000
      1.80877      776.000
      1.82346      797.000
      1.83815      827.000
      1.85284      769.000
      1.86753      758.000
      1.88221      803.000
      1.89690      812.000
      1.91159      766.000
      1.92628      823.000
      1.94097      801.000
      1.95566      776.000
      1.97035      791.000
      1.98504      837.000
      1.99972      818.000
      2.01441      757.000
      2.02910      787.000
      2.04379      845.000
      2.05848      808.000
      2.07317      817.000
      2.08786      872.000
      2.10255      843.000
      2.11723      823.000
      2.13192      870.000
      2.14661      884.000
      2.16130      904.000
      2.17599      997.000
      2.19068      1023.00
      2.20537      1031.00
      2.22006      1055.00
      2.23474      1046.00
      2.24943      1047.00
      2.26412      1079.00
      2.27881      1092.00
      2.29350      1071.00
      2.30819      1115.00
      2.32288      1114.00
      2.33757      1125.00
      2.35225      1161.00
      2.36694      1133.00
      2.38163      1173.00
      2.39632      1164.00
      2.41101      1205.00
      2.42570      1252.00
      2.44039      1267.00
      2.45508      1300.00
      2.46976      1257.00
      2.48445      1302.00
      2.49914      1315.00
      2.51383      1378.00
      2.52852      1393.00
      2.54321      1377.00
      2.55790      1406.00
      2.57259      1422.00
      2.58727      1478.00
      2.60196      1484.00
      2.61665      1477.00
      2.63134      1451.00
      2.64603      1563.00
      2.66072      1475.00
      2.67541      1504.00
      2.69010      1494.00
      2.70478      1597.00
      2.71947      1515.00
      2.73416      1622.00
      2.74885      1661.00
      2.76354      1725.00
      2.77823      1725.00
      2.79292      1736.00
      2.80761      1779.00
      2.82229      1906.00
      2.83698      1967.00
      2.85167      2092.00
      2.86636      2078.00
      2.88105      2252.00
      2.89574      2260.00
      2.91043      2240.00
      2.92512      2327.00
      2.93980      2409.00
      2.95449      2447.00
      2.96918      2544.00
      2.98387      2540.00
      2.99856      2616.00
      3.01325      2677.00
      3.02794      2842.00
      3.04263      3284.00
      3.05731      3283.00
      3.07200      3741.00
      3.08669      4183.00
      3.10138      4487.00
      3.11607      4743.00
      3.13076      5007.00
      3.14545      5618.00
      3.16014      5968.00
      3.17482      6445.00
      3.18951      6888.00
      3.20420      7649.00
      3.21889      8236.00
      3.23358      8849.00
      3.24827      9301.00
      3.26296      9841.00
      3.27765      10072.0
      3.29233      10633.0
      3.30702      11061.0
      3.32171      11027.0
      3.33640      11182.0
      3.35109      11137.0
      3.36578      10813.0
      3.38047      10777.0
      3.39516      10428.0
      3.40984      10073.0
      3.42453      9913.00
      3.43922      9842.00
      3.45391      9476.00
      3.46860      9782.00
      3.48329      9817.00
      3.49798      10223.0
      3.51267      10527.0
      3.52735      11157.0
      3.54204      11906.0
      3.55673      12444.0
      3.57142      13161.0
      3.58611      13972.0
      3.60080      14689.0
      3.61549      15701.0
      3.63018      16167.0
      3.64486      16891.0
      3.65955      17689.0
      3.67424      17377.0
      3.68893      17835.0
      3.70362      17148.0
      3.71831      17119.0
      3.73300      16479.0
      3.74769      15944.0
      3.76237      15301.0
      3.77706      14166.0
      3.79175      13302.0
      3.80644      12229.0
      3.82113      11268.0
      3.83582      10467.0
      3.85051      9704.00
      3.86520      9083.00
      3.87988      8751.00
      3.89457      8309.00
      3.90926      8057.00
      3.92395      7977.00
      3.93864      7902.00
      3.95333      8105.00
      3.96802      7846.00
      3.98271      7850.00
      3.99739      7795.00
      4.01208      7858.00
      4.02677      7805.00
      4.04146      7477.00
      4.05615      7458.00
      4.07084      7063.00
      4.08553      6874.00
      4.10022      6586.00
      4.11490      6086.00
      4.12959      5863.00
      4.14428      5772.00
      4.15897      5485.00
      4.17366      5372.00
      4.18835      5333.00
      4.20304      5283.00
      4.21773      5372.00
      4.23241      5612.00
      4.24710      5691.00
      4.26179      6192.00
      4.27648      6608.00
      4.29117      7441.00
      4.30586      7941.00
      4.32055      8787.00
      4.33524      9934.00
      4.34992      10822.0
      4.36461      11505.0
      4.37930      12942.0
      4.39399      13842.0
      4.40868      15133.0
      4.42337      16332.0
      4.43806      17091.0
      4.45275      17380.0
      4.46743      17801.0
      4.48212      18079.0
      4.49681      17530.0
      4.51150      17377.0
      4.52619      17018.0
      4.54088      16387.0
      4.55557      15572.0
      4.57026      14907.0
      4.58494      14229.0
      4.59963      13557.0
      4.61432      12920.0
      4.62901      12567.0
      4.64370      12321.0
      4.65839      12290.0
      4.67308      12471.0
      4.68777      13259.0
      4.70245      13827.0
      4.71714      14657.0
      4.73183      15530.0
      4.74652      16418.0
      4.76121      17539.0
      4.77590      18825.0
      4.79059      19826.0
      4.80528      20625.0
      4.81996      21368.0
      4.83465      22162.0
      4.84934      22209.0
      4.86403      22151.0
      4.87872      22188.0
      4.89341      21598.0
      4.90810      20967.0
      4.92279      20242.0
      4.93747      19215.0
      4.95216      18234.0
      4.96685      17299.0
      4.98154      16380.0
      4.99623      15458.0
      5.01092      14683.0
      5.02561      14006.0
      5.04030      13575.0
      5.05498      13024.0
      5.06967      12756.0
      5.08436      12532.0
      5.09905      12653.0
      5.11374      12243.0
      5.12843      12183.0
      5.14312      11962.0
      5.15781      11979.0
      5.17249      11377.0
      5.18718      11148.0
      5.20187      10980.0
      5.21656      10722.0
      5.23125      10084.0
      5.24594      9864.00
      5.26063      9189.00
      5.27532      8976.00
      5.29000      8583.00
      5.30469      7973.00
      5.31938      7809.00
      5.33407      7496.00
      5.34876      7298.00
      5.36345      7271.00
      5.37814      7217.00
      5.39283      7345.00
      5.40751      7300.00
      5.42220      7615.00
      5.43689      7945.00
      5.45158      8133.00
      5.46627      8519.00
      5.48096      8623.00
      5.49565      8938.00
      5.51034      9183.00
      5.52502      9469.00
      5.53971      9524.00
      5.55440      9512.00
      5.56909      9453.00
      5.58378      9416.00
      5.59847      9427.00
      5.61316      9076.00
      5.62785      8830.00
      5.64253      8677.00
      5.65722      8661.00
      5.67191      8456.00
      5.68660      8398.00
      5.70129      8439.00
      5.71598      8510.00
      5.73067      8527.00
      5.74536      8573.00
      5.76004      8508.00
      5.77473      8777.00
      5.78942      8949.00
      5.80411      8739.00
      5.81880      8953.00
      5.83349      9007.00
      5.84818      9131.00
      5.86287      8967.00
      5.87755      8823.00
      5.89224      8874.00
      5.90693      8734.00
      5.92162      8882.00
      5.93631      8810.00
      5.95100      9064.00
      5.96569      9231.00
      5.98038      9382.00
      5.99506      9878.00
      6.00975      10245.0
      6.02444      11329.0
      6.03913      12536.0
      6.05382      14102.0
      6.06851      15808.0
      6.08320      18364.0
      6.09789      21980.0
      6.11257      25247.0
      6.12726      30086.0
      6.14195      35991.0
      6.15664      44050.0
      6.17133      52394.0
      6.18602      63271.0
      6.20071      78278.0
      6.21540      92282.0
      6.23008      109516.
      6.24477      129833.
      6.25946      150790.
      6.27415      178370.
      6.28884      204620.
      6.30353      231082.
      6.31822      255223.
      6.33291      280875.
      6.34759      302878.
      6.36228      324937.
      6.37697      339646.
      6.39166      351545.
      6.40635      355767.
      6.42104      355299.
      6.43573      349572.
      6.45042      340748.
      6.46510      319766.
      6.47979      299492.
      6.49448      274537.
      6.50917      250064.
      6.52386      226322.
      6.53855      207725.
      6.55324      181749.
      6.56793      159118.
      6.58261      138552.
      6.59730      118367.
      6.61199      103439.
      6.62668      89603.0
      6.64137      80527.0
      6.65606      69865.0
      6.67075      61255.0
      6.68544      54531.0
      6.70012      49006.0
      6.71481      43761.0
      6.72950      40824.0
      6.74419      38182.0
      6.75888      34774.0
      6.77357      33056.0
      6.78826      30588.0
      6.80295      29701.0
      6.81763      28929.0
      6.83232      29024.0
      6.84701      29241.0
      6.86170      30199.0
      6.87639      31760.0
      6.89108      34210.0
      6.90577      37550.0
      6.92046      40526.0
      6.93514      44008.0
      6.94983      47563.0
      6.96452      51774.0
      6.97921      56086.0
      6.99390      59660.0
      7.00859      63607.0
      7.02328      66568.0
      7.03797      68351.0
      7.05265      69808.0
      7.06734      70164.0
      7.08203      69376.0
      7.09672      67136.0
      7.11141      63685.0
      7.12610      60506.0
      7.14079      56964.0
      7.15548      52819.0
      7.17016      48332.0
      7.18485      43071.0
      7.19954      38619.0
      7.21423      34156.0
      7.22892      29162.0
      7.24361      25845.0
      7.25830      22863.0
      7.27299      20210.0
      7.28767      17993.0
      7.30236      15781.0
      7.31705      13883.0
      7.33174      12564.0
      7.34643      11386.0
      7.36112      10464.0
      7.37581      9554.00
      7.39050      8659.00
      7.40518      8024.00
      7.41987      7301.00
      7.43456      6724.00
      7.44925      6215.00
      7.46394      5766.00
      7.47863      5326.00
      7.49332      4752.00
      7.50801      4526.00
      7.52269      3911.00
      7.53738      3747.00
      7.55207      3477.00
      7.56676      3220.00
      7.58145      3001.00
      7.59614      2737.00
      7.61083      2532.00
      7.62552      2294.00
      7.64020      2307.00
      7.65489      2127.00
      7.66958      2056.00
      7.68427      2024.00
      7.69896      2017.00
      7.71365      1839.00
      7.72834      1911.00
      7.74303      1904.00
      7.75771      1869.00
      7.77240      1902.00
      7.78709      1944.00
      7.80178      1954.00
      7.81647      2005.00
      7.83116      2105.00
      7.84585      2132.00
      7.86054      2160.00
      7.87522      2311.00
      7.88991      2305.00
      7.90460      2416.00
      7.91929      2641.00
      7.93398      2709.00
      7.94867      2777.00
      7.96336      2861.00
      7.97805      3006.00
      7.99273      3195.00
      8.00742      3525.00
      8.02211      3563.00
      8.03680      3833.00
      8.05149      3984.00
      8.06618      4296.00
      8.08087      4664.00
      8.09556      4939.00
      8.11024      5354.00
      8.12493      5754.00
      8.13962      6144.00
      8.15431      6820.00
      8.16900      7480.00
      8.18369      8197.00
      8.19838      9313.00
      8.21307      10458.0
      8.22775      11098.0
      8.24244      12506.0
      8.25713      14272.0
      8.27182      16172.0
      8.28651      18817.0
      8.30120      21802.0
      8.31589      25084.0
      8.33058      28180.0
      8.34526      32053.0
      8.35995      37259.0
      8.37464      43004.0
      8.38933      49576.0
      8.40402      60116.0
      8.41871      68359.0
      8.43340      77834.0
      8.44809      91484.0
      8.46277      103915.
      8.47746      116330.
      8.49215      130165.
      8.50684      141955.
      8.52153      154320.
      8.53622      163477.
      8.55091      173351.
      8.56560      179891.
      8.58028      185556.
      8.59497      188248.
      8.60966      187072.
      8.62435      182475.
      8.63904      177635.
      8.65373      169541.
      8.66842      159028.
      8.68311      147839.
      8.69779      135090.
      8.71248      120334.
      8.72717      107525.
      8.74186      95473.0
      8.75655      82423.0
      8.77124      70692.0
      8.78593      60020.0
      8.80062      51178.0
      8.81530      42793.0
      8.82999      35404.0
      8.84468      27055.0
      8.85937      22027.0
      8.87406      18295.0
      8.88875      15343.0
      8.90344      12715.0
      8.91813      11148.0
      8.93281      9605.00
      8.94750      8389.00
      8.96219      7396.00
      8.97688      6488.00
      8.99157      5935.00
      9.00626      5310.00
      9.02095      4863.00
      9.03564      4419.00
      9.05032      4017.00
      9.06501      3806.00
      9.07970      3439.00
      9.09439      2995.00
      9.10908      2742.00
      9.12377      2466.00
      9.13846      2142.00
      9.15315      2021.00
      9.16783      1725.00
      9.18252      1600.00
      9.19721      1373.00
      9.21190      1181.00
      9.22659      1114.00
      9.24128      1017.00
      9.25597      904.000
      9.27066      772.000
      9.28534      737.000
      9.30003      658.000
      9.31472      593.000
      9.32941      562.000
      9.34410      510.000
      9.35879      508.000
      9.37348      455.000
      9.38817      451.000
      9.40285      448.000
      9.41754      432.000
      9.43223      410.000
      9.44692      405.000
      9.46161      406.000
      9.47630      385.000
      9.49099      373.000
      9.50568      377.000
      9.52036      333.000
      9.53505      339.000
      9.54974      327.000
      9.56443      298.000
      9.57912      301.000
      9.59381      307.000
      9.60850      263.000
      9.62319      242.000
      9.63787      241.000
      9.65256      223.000
      9.66725      191.000
      9.68194      210.000
      9.69663      198.000
      9.71132      192.000
      9.72601      167.000
      9.74070      169.000
      9.75538      166.000
      9.77007      145.000
      9.78476      176.000
      9.79945      148.000
      9.81414      152.000
      9.82883      152.000
      9.84352      146.000
      9.85821      145.000
      9.87289      140.000
      9.88758      138.000
      9.90227      141.000
      9.91696      131.000
      9.93165      145.000
      9.94634      144.000
      9.96103      154.000
      9.97572      140.000
      9.99040      139.000
      10.0051      156.000
      10.0198      167.000
      10.0345      162.000
      10.0492      147.000
      10.0638      161.000
      10.0785      150.000
      10.0932      156.000
      10.1079      178.000
      10.1226      138.000
      10.1373      140.000
      10.1520      133.000
      10.1667      137.000
      10.1814      131.000
      10.1960      160.000
      10.2107      160.000
      10.2254      141.000
      10.2401      132.000
      10.2548      144.000
      10.2695      134.000
      10.2842      143.000
      10.2989      158.000
      10.3136      154.000
      10.3282      145.000
      10.3429      129.000
      10.3576      131.000
      10.3723      160.000
      10.3870      173.000
      10.4017      154.000
      10.4164      148.000
      10.4311      140.000
      10.4458      154.000
      10.4604      165.000
      10.4751      149.000
      10.4898      156.000
      10.5045      153.000
      10.5192      156.000
      10.5339      171.000
      10.5486      152.000
      10.5633      149.000
      10.5780      163.000
      10.5926      174.000
      10.6073      173.000
      10.6220      179.000
      10.6367      172.000
      10.6514      189.000
      10.6661      181.000
      10.6808      201.000
      10.6955      198.000
      10.7102      221.000
      10.7248      239.000
      10.7395      205.000
      10.7542      208.000
